Data from CNx diffuse reflectance - 2_Reflection_1.txt Node
Date: Sat Mar 20 19:11:24 PDT 2021
User: jasperp
Spectrometer: MAYP114014
Trigger mode: 0
Integration Time (sec): 1.000000E-1
Scans to average: 100
Electric dark correction enabled: true
Nonlinearity correction enabled: true
Boxcar width: 3
XAxis mode: Wavelengths
Number of Pixels in Spectrum: 2068
>>>>>Begin Spectral Data<<<<<
198.145	360.288
198.618	157.0152
199.091	137.9939
199.564	114.4383
200.037	91.7894
200.51	87.9167
200.983	84.6489
201.456	82.2918
201.929	78.6459
202.402	75.3592
202.874	72.5982
203.347	72.7956
203.82	71.6407
204.293	69.9715
204.766	68.7351
205.238	67.8295
205.711	67.0192
206.184	66.6688
206.656	66.3028
207.129	65.147
207.602	64.7409
208.074	64.514
208.547	63.1688
209.019	62.3775
209.492	61.2347
209.964	59.4902
210.437	59.238
210.909	58.1155
211.381	57.0262
211.854	56.8476
212.326	56.1962
212.798	55.9205
213.271	55.9488
213.743	54.703
214.215	54.8281
214.688	53.833
215.16	53.1007
215.632	52.3825
216.104	51.7452
216.576	51.1401
217.048	50.57
217.52	49.3211
217.993	49.0747
218.465	48.1916
218.937	47.7956
219.409	46.9722
219.881	45.6065
220.352	44.8834
220.824	44.3599
221.296	43.399
221.768	42.4142
222.24	41.2801
222.712	40.439
223.184	39.9615
223.655	39.3424
224.127	38.6641
224.599	38.2388
225.07	37.661
225.542	37.2395
226.014	36.6004
226.485	35.8694
226.957	35.2569
227.429	34.6145
227.9	33.9027
228.372	33.4307
228.843	32.8882
229.315	32.3275
229.786	32.1399
230.257	31.7097
230.729	31.3274
231.2	30.8698
231.672	30.4216
232.143	29.9365
232.614	29.633
233.086	29.1582
233.557	28.7747
234.028	28.2956
234.499	27.9627
234.97	27.6159
235.442	27.3699
235.913	27.0821
236.384	26.7946
236.855	26.5478
237.326	26.4445
237.797	26.2667
238.268	26.1454
238.739	25.9568
239.21	25.7726
239.681	25.4985
240.152	25.2257
240.623	24.9681
241.093	24.786
241.564	24.6098
242.035	24.385
242.506	24.1947
242.977	24.1039
243.447	24.0709
243.918	24.0015
244.389	23.8905
244.859	23.6158
245.33	23.5291
245.801	23.4186
246.271	23.215
246.742	23.1072
247.212	22.9083
247.683	22.6912
248.153	22.7084
248.624	22.6057
249.094	22.4619
249.565	22.3576
250.035	22.1472
250.505	22.0641
250.976	21.9839
251.446	21.8642
251.916	21.6686
252.387	21.5617
252.857	21.5759
253.327	21.5311
253.797	21.437
254.267	21.3586
254.737	21.2423
255.208	21.2216
255.678	21.1038
256.148	20.9346
256.618	20.812
257.088	20.7076
257.558	20.6595
258.028	20.5929
258.498	20.5061
258.968	20.4965
259.437	20.4872
259.907	20.4419
260.377	20.3991
260.847	20.3408
261.317	20.3592
261.787	20.3287
262.256	20.2573
262.726	20.0837
263.196	19.9831
263.665	19.9324
264.135	19.853
264.605	19.6755
265.074	19.5036
265.544	19.4336
266.013	19.4094
266.483	19.3888
266.952	19.2488
267.422	19.1177
267.891	19.1083
268.361	19.0521
268.83	19.0029
269.299	18.9404
269.769	18.81
270.238	18.81
270.707	18.7822
271.177	18.7159
271.646	18.8001
272.115	18.7138
272.584	18.7831
273.053	18.8018
273.523	18.7704
273.992	18.7752
274.461	18.8488
274.93	18.79
275.399	18.8301
275.868	18.6749
276.337	18.6782
276.806	18.7698
277.275	18.7226
277.744	18.6813
278.213	18.6208
278.681	18.5908
279.15	18.7119
279.619	18.7215
280.088	18.6122
280.557	18.6781
281.025	18.65
281.494	18.6916
281.963	18.6337
282.432	18.4705
282.9	18.3846
283.369	18.3387
283.837	18.2435
284.306	18.1709
284.774	18.047
285.243	17.9883
285.711	17.9408
286.18	17.9212
286.648	17.8687
287.117	17.7577
287.585	17.6688
288.054	17.6423
288.522	17.5525
288.99	17.509
289.458	17.431
289.927	17.4102
290.395	17.3881
290.863	17.3189
291.331	17.2539
291.8	17.2648
292.268	17.231
292.736	17.1838
293.204	17.1217
293.672	17.0776
294.14	17.0448
294.608	16.9993
295.076	16.9837
295.544	16.9351
296.012	16.9233
296.48	16.8708
296.948	16.838
297.416	16.8455
297.883	16.8461
298.351	16.8314
298.819	16.8451
299.287	16.7957
299.754	16.7927
300.222	16.777
300.69	16.7389
301.158	16.7097
301.625	16.6848
302.093	16.6354
302.56	16.6627
303.028	16.6722
303.495	16.6735
303.963	16.6656
304.43	16.6469
304.898	16.6185
305.365	16.6154
305.833	16.603
306.3	16.5652
306.767	16.5584
307.235	16.5325
307.702	16.5028
308.169	16.4786
308.637	16.4713
309.104	16.4379
309.571	16.4119
310.038	16.3971
310.505	16.3886
310.973	16.3905
311.44	16.3591
311.907	16.3641
312.374	16.3187
312.841	16.3194
313.308	16.27
313.775	16.2467
314.242	16.2117
314.709	16.2243
315.176	16.1456
315.642	16.1338
316.109	16.0892
316.576	16.0457
317.043	16.0159
317.51	16.0204
317.976	15.9505
318.443	15.9476
318.91	15.9103
319.376	15.8768
319.843	15.8715
320.31	15.8638
320.776	15.825
321.243	15.8019
321.709	15.7394
322.176	15.7222
322.642	15.683
323.109	15.6608
323.575	15.596
324.042	15.5386
324.508	15.5139
324.975	15.5017
325.441	15.462
325.907	15.4612
326.373	15.4771
326.84	15.4556
327.306	15.4484
327.772	15.4166
328.238	15.4098
328.705	15.3874
329.171	15.3457
329.637	15.2679
330.103	15.2529
330.569	15.2139
331.035	15.1921
331.501	15.1664
331.967	15.1394
332.433	15.1083
332.899	15.079
333.365	15.0626
333.831	15.0575
334.296	15.038
334.762	15.0245
335.228	15.0087
335.694	14.9926
336.16	14.9995
336.625	14.9809
337.091	14.9556
337.557	14.9606
338.022	14.9492
338.488	14.924
338.954	14.9483
339.419	14.9189
339.885	14.8964
340.35	14.9087
340.816	14.8799
341.281	14.8369
341.747	14.8201
342.212	14.7633
342.677	14.7333
343.143	14.7024
343.608	14.6421
344.074	14.6092
344.539	14.5794
345.004	14.5511
345.469	14.532
345.935	14.4899
346.4	14.4612
346.865	14.4325
347.33	14.3969
347.795	14.3846
348.26	14.3503
348.725	14.3053
349.19	14.2974
349.655	14.2923
350.12	14.2805
350.585	14.2548
351.05	14.2223
351.515	14.2035
351.98	14.1864
352.445	14.1678
352.91	14.1406
353.374	14.1286
353.839	14.1201
354.304	14.1008
354.769	14.0909
355.233	14.065
355.698	14.0239
356.163	13.9766
356.627	13.9575
357.092	13.9271
357.557	13.9134
358.021	13.903
358.486	13.9026
358.95	13.9069
359.415	13.8674
359.879	13.8324
360.343	13.8189
360.808	13.7775
361.272	13.7447
361.737	13.7278
362.201	13.6974
362.665	13.7177
363.129	13.7018
363.594	13.6828
364.058	13.695
364.522	13.6988
364.986	13.68
365.45	13.6611
365.914	13.6439
366.378	13.6476
366.843	13.6377
367.307	13.6146
367.771	13.5815
368.235	13.5549
368.699	13.5314
369.162	13.521
369.626	13.4975
370.09	13.487
370.554	13.4625
371.018	13.4481
371.482	13.4591
371.945	13.4702
372.409	13.472
372.873	13.4503
373.337	13.438
373.8	13.4389
374.264	13.4214
374.728	13.3934
375.191	13.3591
375.655	13.3353
376.118	13.333
376.582	13.3152
377.045	13.3142
377.509	13.3118
377.972	13.303
378.435	13.2976
378.899	13.283
379.362	13.2927
379.826	13.2996
380.289	13.2913
380.752	13.3052
381.215	13.3128
381.679	13.3389
382.142	13.3503
382.605	13.3217
383.068	13.304
383.531	13.2955
383.994	13.2922
384.457	13.2881
384.92	13.2721
385.383	13.2413
385.846	13.2503
386.309	13.2745
386.772	13.2856
387.235	13.2801
387.698	13.2869
388.161	13.285
388.624	13.3084
389.087	13.3139
389.549	13.322
390.012	13.3356
390.475	13.3489
390.938	13.3733
391.4	13.401
391.863	13.4184
392.326	13.4427
392.788	13.4494
393.251	13.464
393.713	13.4886
394.176	13.4904
394.638	13.5073
395.101	13.5152
395.563	13.5513
396.026	13.5865
396.488	13.6076
396.95	13.6349
397.413	13.6637
397.875	13.698
398.337	13.7389
398.8	13.751
399.262	13.7768
399.724	13.8129
400.186	13.848
400.648	13.8752
401.111	13.9081
401.573	13.9485
402.035	13.9947
402.497	14.0341
402.959	14.0683
403.421	14.0932
403.883	14.147
404.345	14.1852
404.807	14.2294
405.269	14.2659
405.73	14.312
406.192	14.3585
406.654	14.3991
407.116	14.4531
407.578	14.4941
408.039	14.5449
408.501	14.6055
408.963	14.648
409.424	14.7032
409.886	14.7877
410.348	14.8463
410.809	14.9307
411.271	15.0154
411.732	15.0804
412.194	15.1604
412.655	15.2379
413.117	15.3169
413.578	15.4013
414.039	15.4908
414.501	15.5815
414.962	15.6896
415.424	15.8105
415.885	15.937
416.346	16.0587
416.807	16.1902
417.269	16.321
417.73	16.4658
418.191	16.6023
418.652	16.7408
419.113	16.8923
419.574	17.038
420.035	17.2061
420.496	17.3641
420.957	17.5279
421.418	17.7124
421.879	17.8896
422.34	18.0754
422.801	18.2817
423.262	18.478
423.723	18.708
424.183	18.9268
424.644	19.1819
425.105	19.4523
425.566	19.7267
426.026	20.0143
426.487	20.3191
426.948	20.6062
427.408	20.9324
427.869	21.2287
428.33	21.5418
428.79	21.8483
429.251	22.1667
429.711	22.4885
430.172	22.8446
430.632	23.1711
431.093	23.5353
431.553	23.9086
432.013	24.2872
432.474	24.6779
432.934	25.0713
433.394	25.4905
433.854	25.9331
434.315	26.3535
434.775	26.7638
435.235	27.2203
435.695	27.6744
436.155	28.139
436.615	28.5604
437.076	29.0098
437.536	29.4725
437.996	29.9413
438.456	30.3794
438.916	30.8321
439.376	31.2714
439.835	31.7237
440.295	32.1554
440.755	32.5881
441.215	33.0552
441.675	33.5017
442.135	33.9276
442.594	34.3903
443.054	34.8386
443.514	35.3211
443.973	35.778
444.433	36.2126
444.893	36.7038
445.352	37.1919
445.812	37.6617
446.271	38.1603
446.731	38.6323
447.19	39.1388
447.65	39.6294
448.109	40.101
448.569	40.5772
449.028	41.0412
449.487	41.5241
449.947	41.9921
450.406	42.4437
450.865	42.9215
451.325	43.4056
451.784	43.8614
452.243	44.304
452.702	44.7559
453.161	45.2293
453.62	45.6756
454.08	46.1042
454.539	46.516
454.998	46.9321
455.457	47.3714
455.916	47.7576
456.375	48.1104
456.834	48.4829
457.292	48.866
457.751	49.2336
458.21	49.5971
458.669	49.9611
459.128	50.3204
459.587	50.6827
460.045	51.0463
460.504	51.3972
460.963	51.7574
461.421	52.0936
461.88	52.4392
462.339	52.8018
462.797	53.1362
463.256	53.4907
463.714	53.8354
464.173	54.1695
464.631	54.5306
465.09	54.8661
465.548	55.19
466.007	55.57
466.465	55.9151
466.923	56.3084
467.382	56.7013
467.84	57.123
468.298	57.509
468.756	57.9039
469.215	58.2712
469.673	58.6545
470.131	58.9887
470.589	59.3271
471.047	59.6195
471.505	59.937
471.963	60.2415
472.421	60.4925
472.879	60.7354
473.337	60.9366
473.795	61.15
474.253	61.3814
474.711	61.5853
475.169	61.7759
475.627	61.9825
476.084	62.1842
476.542	62.4185
477	62.6093
477.458	62.8283
477.915	63.0399
478.373	63.2615
478.831	63.4816
479.288	63.6695
479.746	63.8482
480.203	63.9753
480.661	64.0406
481.118	64.0689
481.576	64.0456
482.033	64.0186
482.491	63.9763
482.948	63.9453
483.406	63.968
483.863	63.9999
484.32	64.0906
484.778	64.2152
485.235	64.3488
485.692	64.5154
486.149	64.7032
486.606	64.8684
487.064	65.0993
487.521	65.3749
487.978	65.7582
488.435	66.2355
488.892	66.7716
489.349	67.3226
489.806	67.9692
490.263	68.5413
490.72	68.9975
491.177	69.3128
491.634	69.5296
492.091	69.7261
492.547	69.9403
493.004	70.1108
493.461	70.3276
493.918	70.5648
494.374	70.7193
494.831	70.8795
495.288	71.0524
495.744	71.2223
496.201	71.3405
496.658	71.494
497.114	71.6188
497.571	71.8238
498.027	71.9871
498.484	72.0983
498.94	72.2637
499.397	72.4135
499.853	72.5365
500.309	72.6832
500.766	72.8048
501.222	72.9737
501.678	73.1839
502.135	73.304
502.591	73.4908
503.047	73.6501
503.503	73.8444
503.959	73.9979
504.415	74.1824
504.872	74.3396
505.328	74.532
505.784	74.7326
506.24	74.9486
506.696	75.1389
507.152	75.2992
507.608	75.4395
508.064	75.605
508.519	75.7838
508.975	75.9171
509.431	76.0423
509.887	76.1605
510.343	76.3721
510.798	76.5068
511.254	76.701
511.71	76.8458
512.165	77.0257
512.621	77.2272
513.077	77.3849
513.532	77.5391
513.988	77.751
514.443	77.8661
514.899	78.0305
515.354	78.1734
515.81	78.2973
516.265	78.4965
516.721	78.6077
517.176	78.6848
517.631	78.812
518.087	78.9382
518.542	79.081
518.997	79.2172
519.452	79.3119
519.908	79.4152
520.363	79.5924
520.818	79.6895
521.273	79.7758
521.728	79.8763
522.183	79.9615
522.638	80.033
523.093	80.1249
523.548	80.1837
524.003	80.3113
524.458	80.391
524.913	80.4706
525.368	80.5209
525.823	80.6239
526.278	80.7354
526.732	80.8222
527.187	80.8842
527.642	80.9501
528.097	80.9731
528.551	81.0717
529.006	81.1284
529.461	81.1713
529.915	81.2375
530.37	81.2628
530.824	81.3119
531.279	81.3728
531.733	81.323
532.188	81.3484
532.642	81.42
533.097	81.4841
533.551	81.5535
534.005	81.6218
534.46	81.6851
534.914	81.8127
535.368	81.9001
535.822	81.9628
536.277	81.966
536.731	82.05
537.185	82.0854
537.639	82.1486
538.093	82.2279
538.547	82.2726
539.001	82.3101
539.455	82.3694
539.909	82.408
540.363	82.4482
540.817	82.5295
541.271	82.5512
541.725	82.605
542.179	82.6742
542.633	82.7516
543.087	82.8005
543.54	82.8654
543.994	82.903
544.448	82.9838
544.902	82.9776
545.355	83.0532
545.809	83.1105
546.262	83.1923
546.716	83.2912
547.17	83.3368
547.623	83.4057
548.077	83.5181
548.53	83.5171
548.984	83.6209
549.437	83.6951
549.89	83.7699
550.344	83.8632
550.797	83.9174
551.25	84.0112
551.704	84.0889
552.157	84.138
552.61	84.1698
553.063	84.1647
553.516	84.2103
553.97	84.2706
554.423	84.3287
554.876	84.4215
555.329	84.4631
555.782	84.5034
556.235	84.5831
556.688	84.6738
557.141	84.7122
557.594	84.7296
558.047	84.813
558.499	84.8323
558.952	84.9245
559.405	84.9869
559.858	85.0401
560.311	85.0621
560.763	85.1156
561.216	85.1129
561.669	85.1284
562.121	85.1081
562.574	85.0963
563.027	85.0726
563.479	85.0957
563.932	85.1068
564.384	85.0932
564.837	85.0647
565.289	85.0674
565.742	85.0492
566.194	85.0304
566.646	85.0236
567.099	85.0081
567.551	84.9969
568.003	85.0309
568.456	84.9689
568.908	84.9813
569.36	84.9686
569.812	84.9379
570.264	84.9169
570.716	84.9121
571.168	84.9162
571.621	84.9725
572.073	84.9886
572.525	85.0226
572.977	85.0978
573.428	85.1362
573.88	85.1951
574.332	85.236
574.784	85.2849
575.236	85.3385
575.688	85.3962
576.14	85.4301
576.591	85.4648
577.043	85.5028
577.495	85.5502
577.946	85.6158
578.398	85.6668
578.85	85.7057
579.301	85.7456
579.753	85.8248
580.204	85.8892
580.656	85.9549
581.107	86.0012
581.559	86.0686
582.01	86.1427
582.462	86.2088
582.913	86.2713
583.364	86.3579
583.816	86.458
584.267	86.5383
584.718	86.604
585.169	86.704
585.621	86.8013
586.072	86.8835
586.523	86.9541
586.974	87.005
587.425	87.0887
587.876	87.1737
588.327	87.2395
588.778	87.2816
589.229	87.3531
589.68	87.4035
590.131	87.4744
590.582	87.5114
591.033	87.5688
591.484	87.6388
591.934	87.7625
592.385	87.8232
592.836	87.883
593.287	87.9271
593.737	87.9946
594.188	88.039
594.639	88.0455
595.089	88.0598
595.54	88.1301
595.99	88.1796
596.441	88.2403
596.891	88.3112
597.342	88.3676
597.792	88.4349
598.243	88.4838
598.693	88.5182
599.143	88.5797
599.594	88.6063
600.044	88.5975
600.494	88.6461
600.945	88.665
601.395	88.6995
601.845	88.7443
602.295	88.7975
602.745	88.8564
603.195	88.9396
603.645	88.9741
604.096	89.0574
604.546	89.1282
604.996	89.1697
605.446	89.1903
605.895	89.2411
606.345	89.2657
606.795	89.348
607.245	89.4152
607.695	89.4768
608.145	89.5171
608.594	89.5635
609.044	89.6099
609.494	89.6757
609.944	89.7031
610.393	89.7264
610.843	89.7771
611.292	89.8642
611.742	89.9224
612.192	89.9837
612.641	90.0388
613.091	90.0968
613.54	90.1457
613.989	90.1605
614.439	90.1537
614.888	90.2118
615.338	90.2533
615.787	90.2769
616.236	90.3272
616.685	90.3697
617.135	90.4322
617.584	90.5205
618.033	90.571
618.482	90.6076
618.931	90.6703
619.38	90.6832
619.829	90.7247
620.278	90.7989
620.727	90.8217
621.176	90.8778
621.625	90.9311
622.074	90.9696
622.523	91.0376
622.972	91.0828
623.421	91.0725
623.87	91.1439
624.319	91.181
624.767	91.2231
625.216	91.2802
625.665	91.3188
626.113	91.3644
626.562	91.4436
627.011	91.4638
627.459	91.4691
627.908	91.532
628.356	91.5843
628.805	91.6691
629.253	91.6939
629.702	91.7329
630.15	91.7839
630.598	91.8481
631.047	91.8439
631.495	91.8716
631.943	91.8789
632.392	91.9283
632.84	91.9246
633.288	91.9931
633.736	92.0092
634.184	92.0607
634.633	92.113
635.081	92.161
635.529	92.2128
635.977	92.2954
636.425	92.2959
636.873	92.3186
637.321	92.3258
637.769	92.356
638.217	92.3284
638.664	92.3833
639.112	92.3736
639.56	92.4471
640.008	92.5043
640.456	92.5885
640.903	92.618
641.351	92.6915
641.799	92.6862
642.246	92.7695
642.694	92.7591
643.142	92.8171
643.589	92.8423
644.037	92.7893
644.484	92.8194
644.932	92.8402
645.379	92.8541
645.826	92.8877
646.274	92.9206
646.721	92.9282
647.169	93.043
647.616	93.0495
648.063	93.0474
648.51	93.045
648.958	93.0956
649.405	93.0624
649.852	93.0492
650.299	93.0375
650.746	92.9174
651.193	92.6074
651.64	92.4141
652.087	92.3971
652.534	92.4259
652.981	92.4298
653.428	92.4398
653.875	92.4716
654.322	92.5481
654.769	92.6046
655.216	92.6343
655.662	92.6517
656.109	92.6768
656.556	92.7069
657.003	92.7358
657.449	92.7712
657.896	92.8698
658.342	92.953
658.789	93.0283
659.236	93.1325
659.682	93.2474
660.129	93.4345
660.575	93.7018
661.022	93.7693
661.468	93.7018
661.914	93.7517
662.361	93.7884
662.807	93.8228
663.253	93.852
663.7	93.8388
664.146	93.851
664.592	93.9015
665.038	93.9093
665.484	93.9308
665.931	93.981
666.377	93.9825
666.823	94.0154
667.269	94.0604
667.715	94.0567
668.161	94.0822
668.607	94.1059
669.053	94.0836
669.499	94.0892
669.944	94.1195
670.39	94.098
670.836	94.1553
671.282	94.1667
671.728	94.1797
672.173	94.1952
672.619	94.2151
673.065	94.1858
673.51	94.2038
673.956	94.1752
674.401	94.1664
674.847	94.1882
675.293	94.2133
675.738	94.2415
676.184	94.3015
676.629	94.3242
677.074	94.318
677.52	94.3706
677.965	94.3845
678.41	94.4098
678.856	94.4487
679.301	94.4324
679.746	94.4612
680.191	94.4874
680.637	94.4744
681.082	94.4776
681.527	94.4822
681.972	94.5003
682.417	94.5202
682.862	94.5503
683.307	94.5622
683.752	94.615
684.197	94.6337
684.642	94.6629
685.087	94.6689
685.532	94.6792
685.976	94.6696
686.421	94.7096
686.866	94.6949
687.311	94.6969
687.755	94.6756
688.2	94.6902
688.645	94.7077
689.089	94.7313
689.534	94.7341
689.979	94.7483
690.423	94.7757
690.868	94.8255
691.312	94.8736
691.757	94.8986
692.201	94.9165
692.645	94.9461
693.09	94.9684
693.534	95.0105
693.978	95.0314
694.423	95.018
694.867	95.0174
695.311	95.0387
695.755	95.0824
696.2	95.1157
696.644	95.1074
697.088	95.132
697.532	95.1641
697.976	95.2008
698.42	95.193
698.864	95.1816
699.308	95.1973
699.752	95.2646
700.196	95.2884
700.64	95.3029
701.083	95.3053
701.527	95.3475
701.971	95.3801
702.415	95.394
702.859	95.3698
703.302	95.3839
703.746	95.3932
704.19	95.3894
704.633	95.4236
705.077	95.4257
705.52	95.4442
705.964	95.4744
706.407	95.4684
706.851	95.4666
707.294	95.5043
707.738	95.4943
708.181	95.4981
708.624	95.5145
709.068	95.5396
709.511	95.5888
709.954	95.6108
710.398	95.6414
710.841	95.6701
711.284	95.6954
711.727	95.7298
712.17	95.7362
712.613	95.7335
713.056	95.7687
713.499	95.751
713.942	95.7547
714.385	95.7604
714.828	95.7614
715.271	95.7706
715.714	95.7947
716.157	95.8139
716.6	95.8693
717.043	95.8696
717.485	95.9097
717.928	95.9197
718.371	95.9452
718.813	95.9556
719.256	95.9748
719.699	95.9742
720.141	96.021
720.584	96.0475
721.026	96.0718
721.469	96.0906
721.911	96.0987
722.354	96.0908
722.796	96.1225
723.239	96.1225
723.681	96.0979
724.123	96.1095
724.566	96.1267
725.008	96.1257
725.45	96.1237
725.892	96.1586
726.334	96.1708
726.777	96.1895
727.219	96.201
727.661	96.1927
728.103	96.2149
728.545	96.2509
728.987	96.2441
729.429	96.284
729.871	96.3093
730.313	96.3365
730.755	96.346
731.197	96.3603
731.638	96.3407
732.08	96.3454
732.522	96.321
