Data from 120s-7min-700W-10mL_Absorbance_1.txt Node
Date: Mon Feb 01 21:32:49 PST 2021
User: jasperp
Spectrometer: MAYP114014
Trigger mode: 0
Integration Time (sec): 1.000000E-2
Scans to average: 40
Electric dark correction enabled: true
Nonlinearity correction enabled: true
Boxcar width: 4
XAxis mode: Wavelengths
Number of Pixels in Spectrum: 2068
>>>>>Begin Spectral Data<<<<<
198.145	0.68
198.618	1.08
199.091	1.49
199.564	1.69
200.037	1.75
200.51	1.8
200.983	1.82
201.456	1.83
201.929	1.84
202.402	1.87
202.874	1.9
203.347	1.91
203.82	1.92
204.293	1.92
204.766	1.93
205.238	1.93
205.711	1.95
206.184	1.95
206.656	1.96
207.129	1.97
207.602	1.97
208.074	1.98
208.547	1.99
209.019	1.99
209.492	2
209.964	2
210.437	2
210.909	2.01
211.381	2.01
211.854	2.02
212.326	2.02
212.798	2.03
213.271	2.04
213.743	2.04
214.215	2.05
214.688	2.06
215.16	2.06
215.632	2.07
216.104	2.08
216.576	2.09
217.048	2.1
217.52	2.11
217.993	2.11
218.465	2.12
218.937	2.13
219.409	2.15
219.881	2.16
220.352	2.17
220.824	2.17
221.296	2.19
221.768	2.2
222.24	2.21
222.712	2.22
223.184	2.23
223.655	2.24
224.127	2.25
224.599	2.27
225.07	2.28
225.542	2.29
226.014	2.31
226.485	2.32
226.957	2.34
227.429	2.35
227.9	2.36
228.372	2.37
228.843	2.39
229.315	2.39
229.786	2.4
230.257	2.42
230.729	2.43
231.2	2.44
231.672	2.45
232.143	2.46
232.614	2.47
233.086	2.48
233.557	2.49
234.028	2.5
234.499	2.51
234.97	2.52
235.442	2.53
235.913	2.54
236.384	2.55
236.855	2.55
237.326	2.56
237.797	2.56
238.268	2.57
238.739	2.58
239.21	2.58
239.681	2.58
240.152	2.58
240.623	2.58
241.093	2.59
241.564	2.59
242.035	2.6
242.506	2.6
242.977	2.6
243.447	2.6
243.918	2.61
244.389	2.61
244.859	2.62
245.33	2.62
245.801	2.62
246.271	2.62
246.742	2.62
247.212	2.62
247.683	2.62
248.153	2.62
248.624	2.62
249.094	2.62
249.565	2.62
250.035	2.62
250.505	2.61
250.976	2.61
251.446	2.61
251.916	2.61
252.387	2.61
252.857	2.61
253.327	2.61
253.797	2.61
254.267	2.61
254.737	2.61
255.208	2.62
255.678	2.62
256.148	2.62
256.618	2.62
257.088	2.63
257.558	2.63
258.028	2.63
258.498	2.64
258.968	2.64
259.437	2.64
259.907	2.65
260.377	2.65
260.847	2.66
261.317	2.67
261.787	2.68
262.256	2.68
262.726	2.69
263.196	2.69
263.665	2.7
264.135	2.71
264.605	2.71
265.074	2.72
265.544	2.72
266.013	2.72
266.483	2.73
266.952	2.73
267.422	2.73
267.891	2.73
268.361	2.74
268.83	2.74
269.299	2.74
269.769	2.74
270.238	2.74
270.707	2.74
271.177	2.75
271.646	2.74
272.115	2.75
272.584	2.75
273.053	2.75
273.523	2.75
273.992	2.75
274.461	2.75
274.93	2.75
275.399	2.75
275.868	2.75
276.337	2.75
276.806	2.75
277.275	2.75
277.744	2.75
278.213	2.75
278.681	2.76
279.15	2.76
279.619	2.76
280.088	2.76
280.557	2.76
281.025	2.76
281.494	2.75
281.963	2.75
282.432	2.75
282.9	2.75
283.369	2.75
283.837	2.76
284.306	2.76
284.774	2.76
285.243	2.76
285.711	2.77
286.18	2.77
286.648	2.78
287.117	2.78
287.585	2.78
288.054	2.78
288.522	2.79
288.99	2.79
289.458	2.79
289.927	2.79
290.395	2.79
290.863	2.79
291.331	2.8
291.8	2.8
292.268	2.8
292.736	2.81
293.204	2.81
293.672	2.82
294.14	2.82
294.608	2.82
295.076	2.82
295.544	2.82
296.012	2.83
296.48	2.83
296.948	2.83
297.416	2.83
297.883	2.83
298.351	2.84
298.819	2.84
299.287	2.85
299.754	2.85
300.222	2.85
300.69	2.85
301.158	2.86
301.625	2.86
302.093	2.86
302.56	2.86
303.028	2.87
303.495	2.87
303.963	2.87
304.43	2.87
304.898	2.87
305.365	2.87
305.833	2.87
306.3	2.87
306.767	2.87
307.235	2.87
307.702	2.86
308.169	2.86
308.637	2.87
309.104	2.87
309.571	2.87
310.038	2.87
310.505	2.87
310.973	2.87
311.44	2.88
311.907	2.88
312.374	2.88
312.841	2.88
313.308	2.88
313.775	2.88
314.242	2.87
314.709	2.87
315.176	2.88
315.642	2.88
316.109	2.88
316.576	2.88
317.043	2.88
317.51	2.88
317.976	2.88
318.443	2.88
318.91	2.88
319.376	2.88
319.843	2.88
320.31	2.88
320.776	2.88
321.243	2.87
321.709	2.87
322.176	2.88
322.642	2.88
323.109	2.88
323.575	2.88
324.042	2.88
324.508	2.88
324.975	2.88
325.441	2.88
325.907	2.87
326.373	2.87
326.84	2.87
327.306	2.87
327.772	2.87
328.238	2.87
328.705	2.86
329.171	2.86
329.637	2.86
330.103	2.85
330.569	2.85
331.035	2.84
331.501	2.84
331.967	2.83
332.433	2.83
332.899	2.82
333.365	2.81
333.831	2.81
334.296	2.8
334.762	2.8
335.228	2.79
335.694	2.79
336.16	2.79
336.625	2.78
337.091	2.78
337.557	2.77
338.022	2.77
338.488	2.76
338.954	2.75
339.419	2.75
339.885	2.74
340.35	2.74
340.816	2.74
341.281	2.73
341.747	2.74
342.212	2.74
342.677	2.74
343.143	2.74
343.608	2.75
344.074	2.75
344.539	2.75
345.004	2.75
345.469	2.75
345.935	2.75
346.4	2.75
346.865	2.75
347.33	2.75
347.795	2.75
348.26	2.75
348.725	2.75
349.19	2.75
349.655	2.76
350.12	2.76
350.585	2.76
351.05	2.76
351.515	2.76
351.98	2.76
352.445	2.76
352.91	2.75
353.374	2.75
353.839	2.74
354.304	2.74
354.769	2.74
355.233	2.73
355.698	2.73
356.163	2.72
356.627	2.72
357.092	2.71
357.557	2.71
358.021	2.7
358.486	2.7
358.95	2.69
359.415	2.68
359.879	2.67
360.343	2.66
360.808	2.65
361.272	2.64
361.737	2.64
362.201	2.62
362.665	2.61
363.129	2.6
363.594	2.59
364.058	2.58
364.522	2.57
364.986	2.55
365.45	2.54
365.914	2.52
366.378	2.51
366.843	2.49
367.307	2.48
367.771	2.46
368.235	2.44
368.699	2.43
369.162	2.41
369.626	2.39
370.09	2.38
370.554	2.36
371.018	2.34
371.482	2.32
371.945	2.3
372.409	2.28
372.873	2.26
373.337	2.24
373.8	2.22
374.264	2.2
374.728	2.19
375.191	2.17
375.655	2.15
376.118	2.13
376.582	2.11
377.045	2.09
377.509	2.08
377.972	2.06
378.435	2.04
378.899	2.03
379.362	2.01
379.826	1.99
380.289	1.98
380.752	1.96
381.215	1.94
381.679	1.92
382.142	1.91
382.605	1.89
383.068	1.87
383.531	1.85
383.994	1.84
384.457	1.82
384.92	1.8
385.383	1.79
385.846	1.77
386.309	1.75
386.772	1.74
387.235	1.72
387.698	1.71
388.161	1.69
388.624	1.68
389.087	1.66
389.549	1.65
390.012	1.63
390.475	1.62
390.938	1.6
391.4	1.58
391.863	1.57
392.326	1.55
392.788	1.54
393.251	1.53
393.713	1.51
394.176	1.5
394.638	1.49
395.101	1.47
395.563	1.46
396.026	1.45
396.488	1.43
396.95	1.42
397.413	1.41
397.875	1.39
398.337	1.38
398.8	1.37
399.262	1.36
399.724	1.34
400.186	1.33
400.648	1.32
401.111	1.31
401.573	1.3
402.035	1.28
402.497	1.27
402.959	1.26
403.421	1.25
403.883	1.24
404.345	1.23
404.807	1.22
405.269	1.21
405.73	1.2
406.192	1.18
406.654	1.17
407.116	1.16
407.578	1.15
408.039	1.14
408.501	1.13
408.963	1.12
409.424	1.11
409.886	1.1
410.348	1.09
410.809	1.08
411.271	1.07
411.732	1.06
412.194	1.05
412.655	1.04
413.117	1.04
413.578	1.03
414.039	1.02
414.501	1.01
414.962	1
415.424	0.99
415.885	0.98
416.346	0.98
416.807	0.97
417.269	0.96
417.73	0.95
418.191	0.94
418.652	0.93
419.113	0.93
419.574	0.92
420.035	0.91
420.496	0.9
420.957	0.9
421.418	0.89
421.879	0.88
422.34	0.87
422.801	0.87
423.262	0.86
423.723	0.85
424.183	0.85
424.644	0.84
425.105	0.83
425.566	0.83
426.026	0.82
426.487	0.81
426.948	0.81
427.408	0.8
427.869	0.79
428.33	0.79
428.79	0.78
429.251	0.78
429.711	0.77
430.172	0.76
430.632	0.76
431.093	0.75
431.553	0.75
432.013	0.74
432.474	0.74
432.934	0.73
433.394	0.72
433.854	0.72
434.315	0.71
434.775	0.71
435.235	0.7
435.695	0.7
436.155	0.69
436.615	0.69
437.076	0.68
437.536	0.68
437.996	0.67
438.456	0.67
438.916	0.66
439.376	0.66
439.835	0.66
440.295	0.65
440.755	0.65
441.215	0.64
441.675	0.64
442.135	0.63
442.594	0.63
443.054	0.62
443.514	0.62
443.973	0.62
444.433	0.61
444.893	0.61
445.352	0.6
445.812	0.6
446.271	0.6
446.731	0.59
447.19	0.59
447.65	0.58
448.109	0.58
448.569	0.58
449.028	0.57
449.487	0.57
449.947	0.57
450.406	0.56
450.865	0.56
451.325	0.55
451.784	0.55
452.243	0.55
452.702	0.54
453.161	0.54
453.62	0.54
454.08	0.53
454.539	0.53
454.998	0.53
455.457	0.52
455.916	0.52
456.375	0.52
456.834	0.52
457.292	0.51
457.751	0.51
458.21	0.51
458.669	0.5
459.128	0.5
459.587	0.5
460.045	0.49
460.504	0.49
460.963	0.49
461.421	0.49
461.88	0.48
462.339	0.48
462.797	0.48
463.256	0.48
463.714	0.47
464.173	0.47
464.631	0.47
465.09	0.47
465.548	0.46
466.007	0.46
466.465	0.46
466.923	0.46
467.382	0.45
467.84	0.45
468.298	0.45
468.756	0.45
469.215	0.44
469.673	0.44
470.131	0.44
470.589	0.44
471.047	0.44
471.505	0.43
471.963	0.43
472.421	0.43
472.879	0.43
473.337	0.43
473.795	0.42
474.253	0.42
474.711	0.42
475.169	0.42
475.627	0.42
476.084	0.42
476.542	0.41
477	0.41
477.458	0.41
477.915	0.41
478.373	0.41
478.831	0.4
479.288	0.4
479.746	0.4
480.203	0.4
480.661	0.4
481.118	0.4
481.576	0.39
482.033	0.39
482.491	0.39
482.948	0.39
483.406	0.39
483.863	0.39
484.32	0.39
484.778	0.38
485.235	0.38
485.692	0.38
486.149	0.37
486.606	0.37
487.064	0.37
487.521	0.37
487.978	0.37
488.435	0.37
488.892	0.37
489.349	0.37
489.806	0.37
490.263	0.37
490.72	0.37
491.177	0.37
491.634	0.36
492.091	0.36
492.547	0.36
493.004	0.36
493.461	0.36
493.918	0.36
494.374	0.36
494.831	0.36
495.288	0.36
495.744	0.35
496.201	0.35
496.658	0.35
497.114	0.35
497.571	0.35
498.027	0.35
498.484	0.35
498.94	0.35
499.397	0.35
499.853	0.35
500.309	0.34
500.766	0.34
501.222	0.34
501.678	0.34
502.135	0.34
502.591	0.34
503.047	0.34
503.503	0.34
503.959	0.34
504.415	0.34
504.872	0.34
505.328	0.33
505.784	0.33
506.24	0.33
506.696	0.33
507.152	0.33
507.608	0.33
508.064	0.33
508.519	0.33
508.975	0.33
509.431	0.33
509.887	0.33
510.343	0.33
510.798	0.32
511.254	0.32
511.71	0.32
512.165	0.32
512.621	0.32
513.077	0.32
513.532	0.32
513.988	0.32
514.443	0.32
514.899	0.32
515.354	0.32
515.81	0.32
516.265	0.32
516.721	0.32
517.176	0.32
517.631	0.31
518.087	0.31
518.542	0.31
518.997	0.31
519.452	0.31
519.908	0.31
520.363	0.31
520.818	0.31
521.273	0.31
521.728	0.31
522.183	0.31
522.638	0.31
523.093	0.31
523.548	0.31
524.003	0.31
524.458	0.31
524.913	0.3
525.368	0.3
525.823	0.3
526.278	0.3
526.732	0.3
527.187	0.3
527.642	0.3
528.097	0.3
528.551	0.3
529.006	0.3
529.461	0.3
529.915	0.3
530.37	0.3
530.824	0.3
531.279	0.3
531.733	0.3
532.188	0.29
532.642	0.29
533.097	0.29
533.551	0.29
534.005	0.29
534.46	0.29
534.914	0.29
535.368	0.29
535.822	0.29
536.277	0.29
536.731	0.29
537.185	0.29
537.639	0.29
538.093	0.29
538.547	0.29
539.001	0.29
539.455	0.29
539.909	0.29
540.363	0.29
540.817	0.29
541.271	0.28
541.725	0.28
542.179	0.28
542.633	0.28
543.087	0.28
543.54	0.28
543.994	0.28
544.448	0.28
544.902	0.28
545.355	0.28
545.809	0.28
546.262	0.28
546.716	0.28
547.17	0.28
547.623	0.28
548.077	0.28
548.53	0.28
548.984	0.28
549.437	0.28
549.89	0.28
550.344	0.28
550.797	0.28
551.25	0.28
551.704	0.28
552.157	0.28
552.61	0.27
553.063	0.27
553.516	0.27
553.97	0.27
554.423	0.27
554.876	0.27
555.329	0.27
555.782	0.27
556.235	0.27
556.688	0.27
557.141	0.27
557.594	0.27
558.047	0.27
558.499	0.27
558.952	0.27
559.405	0.27
559.858	0.27
560.311	0.27
560.763	0.27
561.216	0.27
561.669	0.27
562.121	0.27
562.574	0.27
563.027	0.27
563.479	0.27
563.932	0.26
564.384	0.26
564.837	0.26
565.289	0.26
565.742	0.26
566.194	0.26
566.646	0.26
567.099	0.26
567.551	0.26
568.003	0.26
568.456	0.26
568.908	0.26
569.36	0.26
569.812	0.26
570.264	0.26
570.716	0.26
571.168	0.26
571.621	0.25
572.073	0.26
572.525	0.25
572.977	0.25
573.428	0.25
573.88	0.25
574.332	0.25
574.784	0.25
575.236	0.25
575.688	0.25
576.14	0.25
576.591	0.25
577.043	0.25
577.495	0.25
577.946	0.25
578.398	0.25
578.85	0.25
579.301	0.25
579.753	0.25
580.204	0.25
580.656	0.23
581.107	0.22
581.559	0.22
582.01	0.22
582.462	0.22
582.913	0.22
583.364	0.22
583.816	0.22
584.267	0.22
584.718	0.24
585.169	0.25
585.621	0.25
586.072	0.25
586.523	0.25
586.974	0.25
587.425	0.25
587.876	0.25
588.327	0.25
588.778	0.25
589.229	0.25
589.68	0.25
590.131	0.24
590.582	0.25
591.033	0.25
591.484	0.25
591.934	0.25
592.385	0.24
592.836	0.24
593.287	0.24
593.737	0.24
594.188	0.24
594.639	0.24
595.089	0.24
595.54	0.24
595.99	0.24
596.441	0.24
596.891	0.24
597.342	0.24
597.792	0.24
598.243	0.24
598.693	0.24
599.143	0.24
599.594	0.24
600.044	0.24
600.494	0.24
600.945	0.24
601.395	0.24
601.845	0.24
602.295	0.24
602.745	0.24
603.195	0.24
603.645	0.24
604.096	0.24
604.546	0.24
604.996	0.24
605.446	0.24
605.895	0.24
606.345	0.24
606.795	0.24
607.245	0.24
607.695	0.24
608.145	0.24
608.594	0.24
609.044	0.24
609.494	0.24
609.944	0.24
610.393	0.24
610.843	0.24
611.292	0.24
611.742	0.24
612.192	0.24
612.641	0.24
613.091	0.24
613.54	0.24
613.989	0.24
614.439	0.24
614.888	0.24
615.338	0.24
615.787	0.24
616.236	0.24
616.685	0.24
617.135	0.24
617.584	0.24
618.033	0.24
618.482	0.24
618.931	0.24
619.38	0.24
619.829	0.23
620.278	0.23
620.727	0.24
621.176	0.24
621.625	0.24
622.074	0.24
622.523	0.23
622.972	0.23
623.421	0.23
623.87	0.24
624.319	0.23
624.767	0.23
625.216	0.23
625.665	0.23
626.113	0.23
626.562	0.23
627.011	0.23
627.459	0.23
627.908	0.23
628.356	0.23
628.805	0.23
629.253	0.23
629.702	0.23
630.15	0.23
630.598	0.23
631.047	0.23
631.495	0.23
631.943	0.23
632.392	0.23
632.84	0.23
633.288	0.23
633.736	0.23
634.184	0.23
634.633	0.23
635.081	0.23
635.529	0.23
635.977	0.23
636.425	0.23
636.873	0.23
637.321	0.23
637.769	0.23
638.217	0.23
638.664	0.23
639.112	0.23
639.56	0.23
640.008	0.23
640.456	0.23
640.903	0.23
641.351	0.23
641.799	0.23
642.246	0.23
642.694	0.23
643.142	0.23
643.589	0.23
644.037	0.23
644.484	0.23
644.932	0.23
645.379	0.23
645.826	0.23
646.274	0.23
646.721	0.23
647.169	0.23
647.616	0.23
648.063	0.23
648.51	0.23
648.958	0.23
649.405	0.23
649.852	0.23
650.299	0.23
650.746	0.23
651.193	0.23
651.64	0.23
652.087	0.23
652.534	0.23
652.981	0.23
653.428	0.23
653.875	0.23
654.322	0.22
654.769	0.17
655.216	0.13
655.662	0.1
656.109	0.09
656.556	0.1
657.003	0.1
657.449	0.1
657.896	0.1
658.342	0.09
658.789	0.12
659.236	0.15
659.682	0.19
660.129	0.22
660.575	0.22
661.022	0.22
661.468	0.22
661.914	0.22
662.361	0.22
662.807	0.22
663.253	0.23
663.7	0.23
664.146	0.22
664.592	0.22
665.038	0.22
665.484	0.22
665.931	0.22
666.377	0.22
666.823	0.22
667.269	0.22
667.715	0.22
668.161	0.22
668.607	0.22
669.053	0.22
669.499	0.22
669.944	0.22
670.39	0.22
670.836	0.22
671.282	0.22
671.728	0.22
672.173	0.22
672.619	0.22
673.065	0.22
673.51	0.22
673.956	0.22
674.401	0.22
674.847	0.22
675.293	0.22
675.738	0.22
676.184	0.22
676.629	0.22
677.074	0.22
677.52	0.22
677.965	0.22
678.41	0.22
678.856	0.22
679.301	0.22
679.746	0.22
680.191	0.22
680.637	0.22
681.082	0.22
681.527	0.22
681.972	0.22
682.417	0.22
682.862	0.22
683.307	0.22
683.752	0.22
684.197	0.22
684.642	0.22
685.087	0.22
685.532	0.22
685.976	0.22
686.421	0.22
686.866	0.22
687.311	0.22
687.755	0.22
688.2	0.22
688.645	0.22
689.089	0.22
689.534	0.22
689.979	0.22
690.423	0.22
690.868	0.22
691.312	0.22
691.757	0.22
692.201	0.22
692.645	0.22
693.09	0.22
693.534	0.22
693.978	0.22
694.423	0.22
694.867	0.22
695.311	0.22
695.755	0.22
696.2	0.22
696.644	0.22
697.088	0.22
697.532	0.22
697.976	0.22
698.42	0.22
698.864	0.22
699.308	0.22
699.752	0.22
700.196	0.22
700.64	0.22
701.083	0.22
701.527	0.22
701.971	0.22
702.415	0.22
702.859	0.22
703.302	0.22
703.746	0.22
704.19	0.22
704.633	0.22
705.077	0.22
705.52	0.22
705.964	0.21
706.407	0.21
706.851	0.21
707.294	0.21
707.738	0.21
708.181	0.21
708.624	0.21
709.068	0.21
709.511	0.21
709.954	0.21
710.398	0.21
710.841	0.21
711.284	0.21
711.727	0.21
712.17	0.21
712.613	0.21
713.056	0.21
713.499	0.21
713.942	0.21
714.385	0.21
714.828	0.21
715.271	0.21
715.714	0.21
716.157	0.21
716.6	0.21
717.043	0.21
717.485	0.21
717.928	0.21
718.371	0.21
718.813	0.21
719.256	0.21
719.699	0.21
720.141	0.21
720.584	0.21
721.026	0.21
721.469	0.21
721.911	0.21
722.354	0.21
722.796	0.21
723.239	0.21
723.681	0.21
724.123	0.21
724.566	0.21
725.008	0.21
725.45	0.21
725.892	0.21
726.334	0.21
726.777	0.21
727.219	0.21
727.661	0.21
728.103	0.21
728.545	0.21
728.987	0.21
729.429	0.21
729.871	0.21
730.313	0.21
730.755	0.21
731.197	0.21
731.638	0.21
732.08	0.21
732.522	0.21
732.964	0.21
733.405	0.21
733.847	0.21
734.289	0.21
734.73	0.21
735.172	0.21
735.614	0.21
736.055	0.21
736.497	0.21
736.938	0.21
737.38	0.21
737.821	0.21
738.262	0.21
738.704	0.21
739.145	0.21
739.586	0.21
740.028	0.21
740.469	0.21
740.91	0.21
741.351	0.21
741.792	0.21
742.233	0.21
742.675	0.21
743.116	0.21
743.557	0.21
743.998	0.21
744.439	0.21
744.88	0.21
745.321	0.21
745.761	0.21
746.202	0.21
746.643	0.21
747.084	0.21
747.525	0.21
747.965	0.21
748.406	0.21
748.847	0.21
749.287	0.21
749.728	0.21
750.169	0.21
750.609	0.21
751.05	0.2
751.49	0.2
751.931	0.2
752.371	0.2
752.812	0.2
753.252	0.2
753.692	0.2
754.133	0.2
754.573	0.2
755.013	0.2
755.454	0.2
755.894	0.2
756.334	0.2
756.774	0.2
757.214	0.2
757.654	0.2
758.094	0.2
758.534	0.2
758.974	0.2
759.414	0.2
759.854	0.2
760.294	0.2
760.734	0.2
761.174	0.2
761.614	0.2
762.054	0.2
762.493	0.2
762.933	0.2
763.373	0.2
763.812	0.2
764.252	0.2
764.692	0.2
765.131	0.2
765.571	0.2
766.01	0.2
766.45	0.2
766.889	0.2
767.329	0.2
767.768	0.2
768.208	0.2
768.647	0.2
769.086	0.2
769.526	0.2
769.965	0.2
770.404	0.2
770.843	0.2
771.282	0.2
771.722	0.2
772.161	0.2
772.6	0.2
773.039	0.2
773.478	0.2
773.917	0.2
774.356	0.2
774.795	0.2
775.234	0.2
775.672	0.2
776.111	0.2
776.55	0.2
776.989	0.2
777.428	0.2
777.866	0.2
778.305	0.2
778.744	0.2
779.182	0.2
779.621	0.2
780.06	0.2
780.498	0.2
780.937	0.2
781.375	0.2
781.814	0.2
782.252	0.2
782.69	0.2
783.129	0.2
783.567	0.2
784.005	0.2
784.444	0.2
784.882	0.2
785.32	0.2
785.758	0.2
786.196	0.2
786.635	0.2
787.073	0.2
787.511	0.2
787.949	0.2
788.387	0.2
788.825	0.2
789.263	0.2
789.701	0.2
790.139	0.2
790.576	0.2
791.014	0.2
791.452	0.2
791.89	0.2
792.328	0.2
792.765	0.2
793.203	0.2
793.641	0.2
794.078	0.2
794.516	0.2
794.953	0.2
795.391	0.2
795.828	0.2
796.266	0.2
796.703	0.2
797.141	0.2
797.578	0.2
798.015	0.2
798.453	0.2
798.89	0.2
799.327	0.2
799.765	0.2
800.202	0.2
800.639	0.2
801.076	0.2
801.513	0.2
801.95	0.2
802.387	0.2
802.824	0.2
803.261	0.2
803.698	0.2
804.135	0.2
804.572	0.2
805.009	0.2
805.446	0.2
805.883	0.2
806.319	0.2
806.756	0.2
807.193	0.19
807.629	0.19
808.066	0.19
808.503	0.19
808.939	0.19
809.376	0.19
809.812	0.19
810.249	0.19
810.685	0.19
811.122	0.19
811.558	0.19
811.995	0.19
812.431	0.19
812.867	0.19
813.304	0.19
813.74	0.19
814.176	0.19
814.612	0.19
815.049	0.19
815.485	0.19
815.921	0.19
816.357	0.19
816.793	0.19
817.229	0.19
817.665	0.19
818.101	0.19
818.537	0.19
818.973	0.19
819.409	0.19
819.845	0.19
820.28	0.19
820.716	0.19
821.152	0.19
821.588	0.19
822.023	0.19
822.459	0.19
822.895	0.19
823.33	0.19
823.766	0.19
824.201	0.19
824.637	0.19
825.072	0.19
825.508	0.19
825.943	0.19
826.379	0.19
826.814	0.19
827.249	0.19
827.685	0.19
828.12	0.19
828.555	0.19
828.99	0.19
829.425	0.19
829.861	0.19
830.296	0.19
830.731	0.19
831.166	0.19
831.601	0.19
832.036	0.19
832.471	0.19
832.906	0.19
833.341	0.19
833.776	0.19
834.21	0.19
834.645	0.19
835.08	0.19
835.515	0.19
835.949	0.19
836.384	0.19
836.819	0.19
837.253	0.19
837.688	0.19
838.123	0.19
838.557	0.19
838.992	0.19
839.426	0.19
839.861	0.19
840.295	0.19
840.729	0.19
841.164	0.19
841.598	0.19
842.032	0.19
842.467	0.19
842.901	0.19
843.335	0.19
843.769	0.19
844.203	0.19
844.637	0.19
845.072	0.19
845.506	0.19
